Time(sec)	Current(A)
0	0.240734
0.0002964	0.241808
0.0005928	0.239446
0.0008892	0.244386
0.0011856	0.242667
0.001482	0.24009
0.0017784	0.237942
0.0020748	0.240949
0.0023712	0.239446
0.0026676	0.241593
0.002964	0.242023
0.0032604	0.239446
0.0035568	0.24052
0.0038532	0.241164
0.0041496	0.240949
0.004446	0.240949
0.0047424	0.238587
0.0050388	0.242238
0.0053352	0.241593
0.0056316	0.241164
0.005928	0.241593
0.0062244	0.240949
0.0065208	0.239875
0.0068172	0.24052
0.0071136	0.242453
0.00741	0.23966
0.0077064	0.241593
0.0080028	0.324498
0.0082992	0.251259
0.0085956	0.260494
0.008892	0.285408
0.0091884	0.277032
0.0094848	0.255125
0.0097812	0.258561
0.0100776	0.255339
0.010374	0.256628
0.0106704	0.257058
0.0109668	0.254265
0.0112632	0.25491
0.0115596	0.257702
0.011856	0.255125
0.0121524	0.258346
0.0124488	0.255984
0.0127452	0.252977
0.0130416	0.25448
0.013338	0.257702
0.0136344	0.25448
0.0139308	0.255125
0.0142272	0.254265
0.0145236	0.257487
0.01482	0.257917
0.0151164	0.258991
0.0154128	0.256843
0.0157092	0.256628
0.0160056	0.257487
0.016302	0.295718
0.0165984	0.287556
0.0168948	0.300013
0.0171912	0.258131
0.0174876	0.299154
0.017784	0.351131
0.0180804	0.327075
0.0183768	0.357574
0.0186732	0.344258
0.0189696	0.333089
0.019266	0.348983
0.0195624	0.282401
0.0198588	0.257917
0.0201552	0.256843
0.0204516	0.261568
0.020748	0.258776
0.0210444	0.257272
0.0213408	0.277462
0.0216372	0.259635
0.0219336	0.257917
0.02223	0.267796
0.0225264	0.273166
0.0228228	0.262857
0.0231192	0.256628
0.0234156	0.269944
0.023712	0.2882
0.0240084	0.32729
0.0243048	0.344473
0.0246012	0.329868
0.0248976	0.331801
0.025194	0.328579
0.0254904	0.331371
0.0257868	0.337814
0.0260832	0.328149
0.0263796	0.322995
0.026676	0.329008
0.0269724	0.32772
0.0272688	0.344473
0.0275652	0.336526
0.0278616	0.331801
0.028158	0.324928
0.0284544	0.326646
0.0287508	0.328149
0.0290472	0.327935
0.0293436	0.3565
0.02964	0.326646
0.0299364	0.327505
0.0302328	0.341036
0.0305292	0.340177
0.0308256	0.348339
0.031122	0.329438
0.0314184	0.329223
0.0317148	0.32729
0.0320112	0.327505
0.0323076	0.338029
0.032604	0.328579
0.0329004	0.32772
0.0331968	0.325787
0.0334932	0.329653
0.0337896	0.337814
0.034086	0.328579
0.0343824	0.335237
0.0346788	0.330941
0.0349752	0.327935
0.0352716	0.345332
0.035568	0.333948
0.0358644	0.329223
0.0361608	0.326002
0.0364572	0.325142
0.0367536	0.32772
0.03705	0.330727
0.0373464	0.34254
0.0376428	0.326431
0.0379392	0.328364
0.0382356	0.340177
0.038532	0.340607
0.0388284	0.34254
0.0391248	0.326861
0.0394212	0.331371
0.0397176	0.327505
0.040014	0.326861
0.0403104	0.338029
0.0406068	0.331371
0.0409032	0.328149
0.0411996	0.324069
0.041496	0.336526
0.0417924	0.341466
0.0420888	0.326861
0.0423852	0.340821
0.0426816	0.326646
0.042978	0.329438
0.0432744	0.344258
0.0435708	0.335452
0.0438672	0.329438
0.0441636	0.330727
0.04446	0.328364
0.0447564	0.326646
0.0450528	0.329008
0.0453492	0.333089
0.0456456	0.326002
0.045942	0.326861
0.0462384	0.338459
0.0465348	0.334378
0.0468312	0.342969
0.0471276	0.328579
0.047424	0.32772
0.0477204	0.325787
0.0480168	0.326646
0.0483132	0.339318
0.0486096	0.326861
0.048906	0.32772
0.0492024	0.330082
0.0494988	0.336311
0.0497952	0.343399
0.0500916	0.329868
0.050388	0.329653
0.0506844	0.327935
0.0509808	0.329008
0.0512772	0.342754
0.0515736	0.333734
0.05187	0.325572
0.0521664	0.32729
0.0524628	0.328794
0.0527592	0.32772
0.0530556	0.32729
0.053352	0.340607
0.0536484	0.329008
0.0539448	0.327935
0.0542412	0.341895
0.0545376	0.268441
0.054834	0.260709
0.0551304	0.257702
0.0554268	0.258561
0.0557232	0.257058
0.0560196	0.260064
0.056316	0.2693
0.0566124	0.258561
0.0569088	0.25942
0.0572052	0.258561
0.0575016	0.265863
0.057798	0.267367
0.0580944	0.258561
0.0583908	0.292496
0.0586872	0.295718
0.0589836	0.320203
0.05928	0.305168
0.0595764	0.254265
0.0598728	0.248896
0.0601692	0.242238
0.0604656	0.239446
0.060762	0.240734
0.0610584	0.240949
0.0613548	0.239875
0.0616512	0.24009
0.0619476	0.246963
0.062244	0.247392
0.0625404	0.23966
0.0628368	0.239231
0.0631332	0.242238
0.0634296	0.240734
0.063726	0.24052
0.0640224	0.240949
0.0643188	0.243526
0.0646152	0.242453
0.0649116	0.243741
0.065208	0.240949
0.0655044	0.240734
0.0658008	0.24052
0.0660972	0.238157
0.0663936	0.24009
0.06669	0.24009
0.0669864	0.239446
0.0672828	0.241164
0.0675792	0.24052
0.0678756	0.238587
0.068172	0.239446
0.0684684	0.242238
0.0687648	0.240949
0.0690612	0.240305
0.0693576	0.24009
0.069654	0.241164
0.0699504	0.242882
0.0702468	0.242238
0.0705432	0.240305
0.0708396	0.241808
0.071136	0.241164
0.0714324	0.241164
0.0717288	0.241164
0.0720252	0.243312
0.0723216	0.241379
0.072618	0.240734
0.0729144	0.242023
0.0732108	0.237942
0.0735072	0.241808
0.0738036	0.239446
0.0741	0.240734
0.0743964	0.241379
0.0746928	0.239446
0.0749892	0.242238
0.0752856	0.240734
0.075582	0.242453
0.0758784	0.238372
0.0761748	0.241379
0.0764712	0.239875
0.0767676	0.239875
0.077064	0.242238
0.0773604	0.240734
0.0776568	0.240305
0.0779532	0.241164
0.0782496	0.242023
0.078546	0.242667
0.0788424	0.242667
0.0791388	0.243312
0.0794352	0.241379
0.0797316	0.241593
0.080028	0.23966
0.0803244	0.243526
0.0806208	0.241379
0.0809172	0.24052
0.0812136	0.242667
0.08151	0.241379
0.0818064	0.241808
0.0821028	0.239446
0.0823992	0.244171
0.0826956	0.241808
0.082992	0.245459
0.0832884	0.242667
0.0835848	0.23966
0.0838812	0.24052
0.0841776	0.241808
0.084474	0.241593
0.0847704	0.238157
0.0850668	0.24009
0.0853632	0.241593
0.0856596	0.241593
0.085956	0.239016
0.0862524	0.242023
0.0865488	0.240734
0.0868452	0.241593
0.0871416	0.241593
0.087438	0.24052
0.0877344	0.242882
0.0880308	0.23966
0.0883272	0.242238
0.0886236	0.239016
0.08892	0.239231
0.0892164	0.23966
0.0895128	0.242882
0.0898092	0.24052
0.0901056	0.242023
0.090402	0.242882
0.0906984	0.242453
0.0909948	0.239446
0.0912912	0.239231
0.0915876	0.242238
0.091884	0.239016
0.0921804	0.241164
0.0924768	0.239446
0.0927732	0.242882
0.0930696	0.237083
0.093366	0.247178
0.0936624	0.241164
0.0939588	0.242023
0.0942552	0.242238
0.0945516	0.23966
0.094848	0.24009
0.0951444	0.242238
0.0954408	0.240734
0.0957372	0.243312
0.0960336	0.239446
0.09633	0.242238
0.0966264	0.242453
0.0969228	0.241379
0.0972192	0.24052
0.0975156	0.239016
0.097812	0.238372
0.0981084	0.241379
0.0984048	0.238372
0.0987012	0.239231
0.0989976	0.240949
0.099294	0.239446
0.0995904	0.241164
0.0998868	0.240949
0.100183	0.241379
0.10048	0.239875
0.100776	0.239875
0.101072	0.241379
0.101369	0.242882
0.101665	0.240949
0.101962	0.243526
0.102258	0.241164
0.102554	0.240305
0.102851	0.245674
0.103147	0.246319
0.103444	0.24052
0.10374	0.241808
0.104036	0.242667
0.104333	0.241164
0.104629	0.242882
0.104926	0.238801
0.105222	0.24052
0.105518	0.238157
0.105815	0.240305
0.106111	0.242023
0.106408	0.238801
0.106704	0.240734
0.107	0.240949
0.107297	0.237942
0.107593	0.239016
0.10789	0.243097
0.108186	0.241808
0.108482	0.241379
0.108779	0.24009
0.109075	0.240305
0.109372	0.241808
0.109668	0.240949
0.109964	0.240305
0.110261	0.242667
0.110557	0.238587
0.110854	0.241808
0.11115	0.240305
0.111446	0.242023
0.111743	0.241164
0.112039	0.241164
0.112336	0.24052
0.112632	0.242453
0.112928	0.239016
0.113225	0.242238
0.113521	0.239875
0.113818	0.239875
0.114114	0.241808
0.11441	0.24009
0.114707	0.239231
0.115003	0.239875
0.1153	0.24009
0.115596	0.24052
0.115892	0.240949
0.116189	0.242667
0.116485	0.241808
0.116782	0.239016
0.117078	0.240305
0.117374	0.240734
0.117671	0.242453
0.117967	0.24052
0.118264	0.241593
0.11856	0.241164
0.118856	0.24052
0.119153	0.241593
0.119449	0.241808
0.119746	0.24052
0.120042	0.23966
0.120338	0.242453
0.120635	0.239446
0.120931	0.240305
0.121228	0.242667
0.121524	0.242667
0.12182	0.241379
0.122117	0.242238
0.122413	0.239446
0.12271	0.237727
0.123006	0.243097
0.123302	0.246533
0.123599	0.242882
0.123895	0.242453
0.124192	0.240734
0.124488	0.243097
0.124784	0.240305
0.125081	0.23966
0.125377	0.242882
0.125674	0.241164
0.12597	0.242667
0.126266	0.241808
0.126563	0.242453
0.126859	0.240949
0.127156	0.24052
0.127452	0.239875
0.127748	0.238801
0.128045	0.242023
0.128341	0.240949
0.128638	0.243526
0.128934	0.242453
0.12923	0.241593
0.129527	0.24052
0.129823	0.241593
0.13012	0.24052
0.130416	0.241379
0.130712	0.237942
0.131009	0.241379
0.131305	0.24052
0.131602	0.242023
0.131898	0.23966
0.132194	0.242023
0.132491	0.24052
0.132787	0.241808
0.133084	0.241379
0.13338	0.240734
0.133676	0.240305
0.133973	0.24052
0.134269	0.237727
0.134566	0.240734
0.134862	0.241593
0.135158	0.23966
0.135455	0.238801
0.135751	0.24009
0.136048	0.241164
0.136344	0.239446
0.13664	0.241379
0.136937	0.241379
0.137233	0.241379
0.13753	0.240949
0.137826	0.239446
0.138122	0.240949
0.138419	0.241164
0.138715	0.240305
0.139012	0.238587
0.139308	0.23966
0.139604	0.239875
0.139901	0.242453
0.140197	0.240949
0.140494	0.239016
0.14079	0.243312
0.141086	0.241379
0.141383	0.238801
0.141679	0.239875
0.141976	0.240949
0.142272	0.243097
0.142568	0.241593
0.142865	0.241593
0.143161	0.240734
0.143458	0.246963
0.143754	0.243741
0.14405	0.240305
0.144347	0.242023
0.144643	0.23966
0.14494	0.243312
0.145236	0.240734
0.145532	0.24052
0.145829	0.24052
0.146125	0.241379
0.146422	0.240734
0.146718	0.241379
0.147014	0.238801
0.147311	0.241808
0.147607	0.241593
0.147904	0.240305
0.1482	0.24052
0.148496	0.240734
0.148793	0.24009
0.149089	0.238801
0.149386	0.241379
0.149682	0.241593
0.149978	0.240305
0.150275	0.240305
0.150571	0.238372
0.150868	0.24052
0.151164	0.239875
0.15146	0.24009
0.151757	0.243097
0.152053	0.24009
0.15235	0.240305
0.152646	0.243097
0.152942	0.242667
0.153239	0.241164
0.153535	0.23966
0.153832	0.241808
0.154128	0.244171
0.154424	0.240305
0.154721	0.242882
0.155017	0.239875
0.155314	0.240305
0.15561	0.240305
0.155906	0.240305
0.156203	0.238587
0.156499	0.239231
0.156796	0.24009
0.157092	0.241164
0.157388	0.242453
0.157685	0.237513
0.157981	0.239875
0.158278	0.242023
0.158574	0.241593
0.15887	0.24009
0.159167	0.242882
0.159463	0.241164
0.15976	0.241164
0.160056	0.240949
0.160352	0.240949
0.160649	0.240949
0.160945	0.241808
0.161242	0.24052
0.161538	0.243097
0.161834	0.24009
0.162131	0.241808
0.162427	0.242238
0.162724	0.24052
0.16302	0.242023
0.163316	0.241808
0.163613	0.240734
0.163909	0.248681
0.164206	0.241379
0.164502	0.24052
0.164798	0.241164
0.165095	0.241164
0.165391	0.239016
0.165688	0.241808
0.165984	0.243312
0.16628	0.239875
0.166577	0.238587
0.166873	0.241379
0.16717	0.241808
0.167466	0.24009
0.167762	0.239446
0.168059	0.240949
0.168355	0.241379
0.168652	0.238801
0.168948	0.24009
0.169244	0.241379
0.169541	0.239231
0.169837	0.242238
0.170134	0.239016
0.17043	0.240949
0.170726	0.239875
0.171023	0.239875
0.171319	0.24009
0.171616	0.242238
0.171912	0.240734
0.172208	0.241379
0.172505	0.240734
0.172801	0.24009
0.173098	0.240949
0.173394	0.240305
0.17369	0.239875
0.173987	0.23966
0.174283	0.241379
0.17458	0.243312
0.174876	0.242023
0.175172	0.242667
0.175469	0.240734
0.175765	0.240305
0.176062	0.240949
0.176358	0.24052
0.176654	0.241164
0.176951	0.239875
0.177247	0.239875
0.177544	0.23966
0.17784	0.24009
0.178136	0.240734
0.178433	0.24009
0.178729	0.238587
0.179026	0.242238
0.179322	0.241379
0.179618	0.239016
0.179915	0.237083
0.180211	0.240305
0.180508	0.240305
0.180804	0.238801
0.1811	0.241164
0.181397	0.240305
0.181693	0.24052
0.18199	0.240305
0.182286	0.23966
0.182582	0.237942
0.182879	0.240305
0.183175	0.241379
0.183472	0.242453
0.183768	0.237942
0.184064	0.245889
0.184361	0.241164
0.184657	0.241808
0.184954	0.241164
0.18525	0.241164
0.185546	0.242023
0.185843	0.24052
0.186139	0.23966
0.186436	0.240305
0.186732	0.241379
0.187028	0.241593
0.187325	0.240949
0.187621	0.242882
0.187918	0.242023
0.188214	0.241164
0.18851	0.240734
0.188807	0.240305
0.189103	0.241379
0.1894	0.240305
0.189696	0.24052
0.189992	0.241379
0.190289	0.239446
0.190585	0.243526
0.190882	0.240734
0.191178	0.239446
0.191474	0.241164
0.191771	0.242023
0.192067	0.239875
0.192364	0.240949
0.19266	0.241808
0.192956	0.240305
0.193253	0.238157
0.193549	0.24052
0.193846	0.239446
0.194142	0.241593
0.194438	0.241164
0.194735	0.241164
0.195031	0.239231
0.195328	0.239446
0.195624	0.242453
0.19592	0.239875
0.196217	0.241808
0.196513	0.241164
0.19681	0.242238
0.197106	0.239016
0.197402	0.242238
0.197699	0.24009
0.197995	0.242882
0.198292	0.240734
0.198588	0.240949
0.198884	0.240734
0.199181	0.242453
0.199477	0.241164
0.199774	0.23966
0.20007	0.240734
0.200366	0.239016
0.200663	0.241593
0.200959	0.241593
0.201256	0.23966
0.201552	0.237513
0.201848	0.239875
0.202145	0.241808
0.202441	0.242453
0.202738	0.239875
0.203034	0.241379
0.20333	0.24009
0.203627	0.242238
0.203923	0.241593
0.20422	0.239231
0.204516	0.251903
0.204812	0.24052
0.205109	0.241593
0.205405	0.24009
0.205702	0.24052
0.205998	0.241379
0.206294	0.24052
0.206591	0.242238
0.206887	0.24052
0.207184	0.241808
0.20748	0.238801
0.207776	0.239231
0.208073	0.238587
0.208369	0.241808
0.208666	0.24009
0.208962	0.239875
0.209258	0.242238
0.209555	0.240734
0.209851	0.240949
0.210148	0.241379
0.210444	0.238801
0.21074	0.23966
0.211037	0.24052
0.211333	0.23966
0.21163	0.241808
0.211926	0.24009
0.212222	0.241808
0.212519	0.242238
0.212815	0.241164
0.213112	0.240949
0.213408	0.241808
0.213704	0.241808
0.214001	0.242882
0.214297	0.24009
0.214594	0.239016
0.21489	0.238801
0.215186	0.241164
0.215483	0.241808
0.215779	0.24052
0.216076	0.241164
0.216372	0.240949
0.216668	0.239016
0.216965	0.240734
0.217261	0.242238
0.217558	0.240305
0.217854	0.241164
0.21815	0.24052
0.218447	0.240305
0.218743	0.239231
0.21904	0.241164
0.219336	0.239446
0.219632	0.239231
0.219929	0.239875
0.220225	0.24052
0.220522	0.24009
0.220818	0.240949
0.221114	0.239231
0.221411	0.242023
0.221707	0.241379
0.222004	0.240949
0.2223	0.240734
0.222596	0.241379
0.222893	0.240949
0.223189	0.241379
0.223486	0.242023
0.223782	0.239446
0.224078	0.241164
0.224375	0.240949
0.224671	0.245674
0.224968	0.240949
0.225264	0.240949
0.22556	0.240305
0.225857	0.237942
0.226153	0.24052
0.22645	0.243741
0.226746	0.239446
0.227042	0.241164
0.227339	0.238801
0.227635	0.242667
0.227932	0.242023
0.228228	0.240734
0.228524	0.237942
0.228821	0.242023
0.229117	0.240734
0.229414	0.239231
0.22971	0.24052
0.230006	0.24052
0.230303	0.241593
0.230599	0.24052
0.230896	0.240734
0.231192	0.24009
0.231488	0.241164
0.231785	0.242667
0.232081	0.238801
0.232378	0.240734
0.232674	0.242667
0.23297	0.24052
0.233267	0.240949
0.233563	0.239446
0.23386	0.23966
0.234156	0.24009
0.234452	0.241379
0.234749	0.240734
0.235045	0.24052
0.235342	0.24009
0.235638	0.240734
0.235934	0.239875
0.236231	0.239231
0.236527	0.241808
0.236824	0.238801
0.23712	0.243097
0.237416	0.239446
0.237713	0.239231
0.238009	0.240305
0.238306	0.240305
0.238602	0.243097
0.238898	0.242453
0.239195	0.243097
0.239491	0.24009
0.239788	0.244386
0.240084	0.241164
0.24038	0.241593
0.240677	0.241593
0.240973	0.242453
0.24127	0.241379
0.241566	0.240949
0.241862	0.241164
0.242159	0.24009
0.242455	0.241379
0.242752	0.24052
0.243048	0.241164
0.243344	0.242667
0.243641	0.240949
0.243937	0.241808
0.244234	0.24052
0.24453	0.243312
0.244826	0.241379
0.245123	0.244386
0.245419	0.241379
0.245716	0.241808
0.246012	0.241379
0.246308	0.240949
0.246605	0.239875
0.246901	0.24052
0.247198	0.240305
0.247494	0.241164
0.24779	0.241379
0.248087	0.241379
0.248383	0.244171
0.24868	0.24009
0.248976	0.241808
0.249272	0.240949
0.249569	0.242453
0.249865	0.24009
0.250162	0.243097
0.250458	0.240305
0.250754	0.242238
0.251051	0.243312
0.251347	0.241164
0.251644	0.239875
0.25194	0.241164
0.252236	0.241808
0.252533	0.242667
0.252829	0.24052
0.253126	0.239875
0.253422	0.240949
0.253718	0.240305
0.254015	0.240305
0.254311	0.240949
0.254608	0.242023
0.254904	0.241593
0.2552	0.24052
0.255497	0.23966
0.255793	0.240949
0.25609	0.240949
0.256386	0.241808
0.256682	0.241808
0.256979	0.239875
0.257275	0.240305
0.257572	0.241379
0.257868	0.240949
0.258164	0.243956
0.258461	0.237513
0.258757	0.241808
0.259054	0.238801
0.25935	0.240734
0.259646	0.239231
0.259943	0.24009
0.260239	0.240305
0.260536	0.23966
0.260832	0.242453
0.261128	0.239875
0.261425	0.239446
0.261721	0.238157
0.262018	0.239446
0.262314	0.242023
0.26261	0.241808
0.262907	0.24009
0.263203	0.24009
0.2635	0.242667
0.263796	0.23966
0.264092	0.240949
0.264389	0.240734
0.264685	0.242238
0.264982	0.240305
0.265278	0.243741
0.265574	0.242238
0.265871	0.24009
0.266167	0.23966
0.266464	0.241164
0.26676	0.243097
0.267056	0.24009
0.267353	0.241808
0.267649	0.240734
0.267946	0.242238
0.268242	0.241379
0.268538	0.241379
0.268835	0.237942
0.269131	0.240305
0.269428	0.240305
0.269724	0.23966
0.27002	0.242023
0.270317	0.24009
0.270613	0.23966
0.27091	0.24009
0.271206	0.238801
0.271502	0.239446
0.271799	0.242238
0.272095	0.241808
0.272392	0.241593
0.272688	0.239231
0.272984	0.24052
0.273281	0.242023
0.273577	0.240305
0.273874	0.24009
0.27417	0.240734
0.274466	0.237942
0.274763	0.239446
0.275059	0.240949
0.275356	0.240734
0.275652	0.244815
0.275948	0.243312
0.276245	0.241593
0.276541	0.24052
0.276838	0.24052
0.277134	0.237942
0.27743	0.239231
0.277727	0.24052
0.278023	0.24009
0.27832	0.239875
0.278616	0.239446
0.278912	0.242453
0.279209	0.240734
0.279505	0.240305
0.279802	0.239875
0.280098	0.241593
0.280394	0.241593
0.280691	0.23966
0.280987	0.242453
0.281284	0.239016
0.28158	0.24009
0.281876	0.240305
0.282173	0.240949
0.282469	0.23966
0.282766	0.240305
0.283062	0.243526
0.283358	0.242238
0.283655	0.241593
0.283951	0.23966
0.284248	0.240305
0.284544	0.24009
0.28484	0.240734
0.285137	0.241379
0.285433	0.244815
0.28573	0.242023
0.286026	0.243097
0.286322	0.240305
0.286619	0.239875
0.286915	0.239446
0.287212	0.238372
0.287508	0.240949
0.287804	0.238801
0.288101	0.240734
0.288397	0.241593
0.288694	0.240734
0.28899	0.242023
0.289286	0.242453
0.289583	0.240949
0.289879	0.23966
0.290176	0.242023
0.290472	0.240734
0.290768	0.240949
0.291065	0.24052
0.291361	0.241593
0.291658	0.240734
0.291954	0.241379
0.29225	0.241593
0.292547	0.240734
0.292843	0.23966
0.29314	0.243312
0.293436	0.239446
0.293732	0.242023
0.294029	0.242882
0.294325	0.240949
0.294622	0.239016
0.294918	0.243097
0.295214	0.240949
0.295511	0.239016
0.295807	0.242667
0.296104	0.238587
0.2964	0.240305
0.296696	0.24052
0.296993	0.240305
0.297289	0.239875
0.297586	0.239231
0.297882	0.241379
0.298178	0.24052
0.298475	0.241379
0.298771	0.239875
0.299068	0.242453
0.299364	0.240305
0.29966	0.241593
0.299957	0.241379
0.300253	0.238587
0.30055	0.240734
0.300846	0.239446
0.301142	0.241593
0.301439	0.241593
0.301735	0.242023
0.302032	0.241593
0.302328	0.242453
0.302624	0.238587
0.302921	0.240949
0.303217	0.239875
0.303514	0.240734
0.30381	0.240734
0.304106	0.24052
0.304403	0.242882
0.304699	0.23966
0.304996	0.239875
0.305292	0.240305
0.305588	0.241379
0.305885	0.2446
0.306181	0.242023
0.306478	0.241164
0.306774	0.241808
0.30707	0.241379
0.307367	0.24052
0.307663	0.237942
0.30796	0.240305
0.308256	0.242667
0.308552	0.242023
0.308849	0.238801
0.309145	0.242453
0.309442	0.242882
0.309738	0.242453
0.310034	0.240949
0.310331	0.242023
0.310627	0.243526
0.310924	0.241379
0.31122	0.240949
0.311516	0.24009
0.311813	0.243097
0.312109	0.24052
0.312406	0.241379
0.312702	0.241379
0.312998	0.239446
0.313295	0.238372
0.313591	0.241164
0.313888	0.24052
0.314184	0.244171
0.31448	0.242023
0.314777	0.240734
0.315073	0.240949
0.31537	0.240949
0.315666	0.240305
0.315962	0.241808
0.316259	0.241164
0.316555	0.240305
0.316852	0.242667
0.317148	0.239016
0.317444	0.241593
0.317741	0.238587
0.318037	0.240305
0.318334	0.239875
0.31863	0.241164
0.318926	0.240949
0.319223	0.241164
0.319519	0.23966
0.319816	0.240305
0.320112	0.24052
0.320408	0.241164
0.320705	0.243097
0.321001	0.241379
0.321298	0.23966
0.321594	0.240734
0.32189	0.239016
0.322187	0.24009
0.322483	0.239016
0.32278	0.239231
0.323076	0.238801
0.323372	0.243097
0.323669	0.242238
0.323965	0.241808
0.324262	0.242453
0.324558	0.242667
0.324854	0.240734
0.325151	0.240305
0.325447	0.239231
0.325744	0.242453
0.32604	0.245245
0.326336	0.244171
0.326633	0.242023
0.326929	0.239875
0.327226	0.240734
0.327522	0.240949
0.327818	0.258131
0.328115	0.282401
0.328411	0.258776
0.328708	0.260709
0.329004	0.260064
0.3293	0.257272
0.329597	0.254051
0.329893	0.256843
0.33019	0.256628
0.330486	0.255554
0.330782	0.255984
0.331079	0.256628
0.331375	0.252977
0.331672	0.257487
0.331968	0.255339
0.332264	0.254265
0.332561	0.257702
0.332857	0.256843
0.333154	0.255125
0.33345	0.25491
0.333746	0.259205
0.334043	0.256413
0.334339	0.257487
0.334636	0.256628
0.334932	0.255769
0.335228	0.25491
0.335525	0.254051
0.335821	0.252547
0.336118	0.257058
0.336414	0.299584
0.33671	0.287127
0.337007	0.300872
0.337303	0.292496
0.3376	0.297866
0.337896	0.328149
0.338192	0.330297
0.338489	0.3565
0.338785	0.339533
0.339082	0.33223
0.339378	0.364017
0.339674	0.281328
0.339971	0.275529
0.340267	0.311182
0.340564	0.280039
0.34086	0.261997
0.341156	0.263716
0.341453	0.275099
0.341749	0.252118
0.342046	0.263716
0.342342	0.239016
0.342638	0.241593
0.342935	0.241379
0.343231	0.240305
0.343528	0.241379
0.343824	0.24052
0.34412	0.243312
0.344417	0.241164
0.344713	0.241379
0.34501	0.240949
0.345306	0.24052
0.345602	0.242453
0.345899	0.240734
0.346195	0.240305
0.346492	0.245674
0.346788	0.23966
0.347084	0.242023
0.347381	0.241164
0.347677	0.241164
0.347974	0.241379
0.34827	0.242453
0.348566	0.238372
0.348863	0.24052
0.349159	0.237942
0.349456	0.239446
0.349752	0.23966
0.350048	0.242667
0.350345	0.241808
0.350641	0.240305
0.350938	0.243097
0.351234	0.240305
0.35153	0.241379
0.351827	0.240305
0.352123	0.240734
0.35242	0.23966
0.352716	0.241164
0.353012	0.239231
0.353309	0.242453
0.353605	0.240305
0.353902	0.24009
0.354198	0.241379
0.354494	0.239446
0.354791	0.242023
0.355087	0.239446
0.355384	0.243526
0.35568	0.242023
0.355976	0.240305
0.356273	0.241593
0.356569	0.243526
0.356866	0.242667
0.357162	0.242023
0.357458	0.240734
0.357755	0.240949
0.358051	0.241808
0.358348	0.241808
0.358644	0.242023
0.35894	0.243526
0.359237	0.242453
0.359533	0.242882
0.35983	0.239875
0.360126	0.243312
0.360422	0.238372
0.360719	0.239875
0.361015	0.238801
0.361312	0.242023
0.361608	0.244171
0.361904	0.242453
0.362201	0.241379
0.362497	0.24009
0.362794	0.241593
0.36309	0.23966
0.363386	0.239875
0.363683	0.240734
0.363979	0.241808
0.364276	0.239446
0.364572	0.242238
0.364868	0.240734
0.365165	0.242667
0.365461	0.242023
0.365758	0.242882
0.366054	0.239231
0.36635	0.23966
0.366647	0.244171
0.366943	0.244386
0.36724	0.24009
0.367536	0.241808
0.367832	0.240734
0.368129	0.239446
0.368425	0.243526
0.368722	0.239016
0.369018	0.24009
0.369314	0.240305
0.369611	0.241379
0.369907	0.238801
0.370204	0.242238
0.3705	0.240949
0.370796	0.240734
0.371093	0.243526
0.371389	0.24052
0.371686	0.238801
0.371982	0.24052
0.372278	0.241164
0.372575	0.24052
0.372871	0.239446
0.373168	0.23966
0.373464	0.238157
0.37376	0.239231
0.374057	0.240949
0.374353	0.240949
0.37465	0.240305
0.374946	0.242238
0.375242	0.239231
0.375539	0.243097
0.375835	0.241379
0.376132	0.241808
0.376428	0.239446
0.376724	0.242882
0.377021	0.240305
0.377317	0.241379
0.377614	0.242453
0.37791	0.239875
0.378206	0.238587
0.378503	0.240305
0.378799	0.240734
0.379096	0.240734
0.379392	0.241808
0.379688	0.242238
0.379985	0.240734
0.380281	0.242023
0.380578	0.239875
0.380874	0.241379
0.38117	0.240949
0.381467	0.241379
0.381763	0.243741
0.38206	0.242023
0.382356	0.243741
0.382652	0.240949
0.382949	0.238157
0.383245	0.240734
0.383542	0.242023
0.383838	0.241379
0.384134	0.241379
0.384431	0.24009
0.384727	0.239231
0.385024	0.24009
0.38532	0.240949
0.385616	0.240949
0.385913	0.241808
0.386209	0.242453
0.386506	0.243312
0.386802	0.23966
0.387098	0.244815
0.387395	0.239875
0.387691	0.242882
0.387988	0.241164
0.388284	0.243526
0.38858	0.239875
0.388877	0.242023
0.389173	0.240734
0.38947	0.23966
0.389766	0.238801
0.390062	0.241593
0.390359	0.241164
0.390655	0.242453
0.390952	0.242667
0.391248	0.241164
0.391544	0.241164
0.391841	0.241379
0.392137	0.238801
0.392434	0.240949
0.39273	0.241379
0.393026	0.240734
0.393323	0.242238
0.393619	0.241164
0.393916	0.241379
0.394212	0.238801
0.394508	0.23966
0.394805	0.242453
0.395101	0.239016
0.395398	0.242667
0.395694	0.24009
0.39599	0.23966
0.396287	0.239016
0.396583	0.239446
0.39688	0.241379
0.397176	0.243312
0.397472	0.238372
0.397769	0.239231
0.398065	0.239875
0.398362	0.242453
0.398658	0.241379
0.398954	0.23966
0.399251	0.239446
0.399547	0.240734
0.399844	0.238587
0.40014	0.241164
0.400436	0.239446
0.400733	0.240734
0.401029	0.239016
0.401326	0.241593
0.401622	0.238372
0.401918	0.242667
0.402215	0.238801
0.402511	0.239231
0.402808	0.23966
0.403104	0.239875
0.4034	0.242882
0.403697	0.239875
0.403993	0.241808
0.40429	0.24052
0.404586	0.238372
0.404882	0.241379
0.405179	0.241379
0.405475	0.242023
0.405772	0.241164
0.406068	0.23966
0.406364	0.240305
0.406661	0.240734
0.406957	0.23966
0.407254	0.244171
0.40755	0.243312
0.407846	0.24052
0.408143	0.242023
0.408439	0.242667
0.408736	0.240949
0.409032	0.240734
0.409328	0.243097
0.409625	0.239231
0.409921	0.241379
0.410218	0.23966
0.410514	0.238157
0.41081	0.239875
0.411107	0.238587
0.411403	0.240949
0.4117	0.240734
0.411996	0.240949
0.412292	0.241593
0.412589	0.242023
0.412885	0.242023
0.413182	0.242238
0.413478	0.239875
0.413774	0.241808
0.414071	0.23966
0.414367	0.242453
0.414664	0.239016
0.41496	0.240305
0.415256	0.242023
0.415553	0.241808
0.415849	0.242667
0.416146	0.241593
0.416442	0.238801
0.416738	0.241593
0.417035	0.24052
0.417331	0.239231
0.417628	0.240949
0.417924	0.238801
0.41822	0.24009
0.418517	0.241164
0.418813	0.24052
0.41911	0.24009
0.419406	0.240734
0.419702	0.239446
0.419999	0.240949
0.420295	0.24052
0.420592	0.241379
0.420888	0.240734
0.421184	0.240949
0.421481	0.241379
0.421777	0.241593
0.422074	0.239446
0.42237	0.239231
0.422666	0.240734
0.422963	0.238801
0.423259	0.24052
0.423556	0.241379
0.423852	0.241379
0.424148	0.241379
0.424445	0.241808
0.424741	0.242882
0.425038	0.240305
0.425334	0.241379
0.42563	0.2446
0.425927	0.239446
0.426223	0.240734
0.42652	0.240949
0.426816	0.23966
0.427112	0.24052
0.427409	0.241808
0.427705	0.243312
0.428002	0.24009
0.428298	0.240305
0.428594	0.243312
0.428891	0.241808
0.429187	0.240305
0.429484	0.240305
0.42978	0.239446
0.430076	0.238801
0.430373	0.238801
0.430669	0.240949
0.430966	0.241164
0.431262	0.240949
0.431558	0.23966
0.431855	0.240734
0.432151	0.239231
0.432448	0.24052
0.432744	0.238372
0.43304	0.241379
0.433337	0.238157
0.433633	0.239016
0.43393	0.239446
0.434226	0.239446
0.434522	0.242882
0.434819	0.239875
0.435115	0.241164
0.435412	0.240734
0.435708	0.237083
0.436004	0.241379
0.436301	0.240734
0.436597	0.239016
0.436894	0.241593
0.43719	0.239016
0.437486	0.239446
0.437783	0.24009
0.438079	0.241593
0.438376	0.237942
0.438672	0.24052
0.438968	0.238372
0.439265	0.24052
0.439561	0.242238
0.439858	0.242667
0.440154	0.243741
0.44045	0.238157
0.440747	0.239446
0.441043	0.24052
0.44134	0.239231
0.441636	0.243312
0.441932	0.24009
0.442229	0.238372
0.442525	0.24052
0.442822	0.241379
0.443118	0.243097
0.443414	0.238801
0.443711	0.241379
0.444007	0.240734
0.444304	0.242238
0.4446	0.241164
0.444896	0.242667
0.445193	0.241593
0.445489	0.240949
0.445786	0.239016
0.446082	0.238372
0.446378	0.241164
0.446675	0.242238
0.446971	0.243097
0.447268	0.24052
0.447564	0.241593
0.44786	0.243526
0.448157	0.243097
0.448453	0.240734
0.44875	0.239231
0.449046	0.23966
0.449342	0.239016
0.449639	0.24052
0.449935	0.23966
0.450232	0.240305
0.450528	0.241379
0.450824	0.236868
0.451121	0.240734
0.451417	0.242667
0.451714	0.242667
0.45201	0.238157
0.452306	0.242453
0.452603	0.240305
0.452899	0.241593
0.453196	0.241379
0.453492	0.241593
0.453788	0.240305
0.454085	0.24009
0.454381	0.238801
0.454678	0.240305
0.454974	0.239016
0.45527	0.239446
0.455567	0.239231
0.455863	0.23966
0.45616	0.242023
0.456456	0.242238
0.456752	0.240734
0.457049	0.238587
0.457345	0.242023
0.457642	0.241808
0.457938	0.242667
0.458234	0.239875
0.458531	0.24052
0.458827	0.239016
0.459124	0.238372
0.45942	0.24052
0.459716	0.241808
0.460013	0.242667
0.460309	0.243097
0.460606	0.242238
0.460902	0.241593
0.461198	0.239875
0.461495	0.241593
0.461791	0.239875
0.462088	0.240734
0.462384	0.242667
0.46268	0.239446
0.462977	0.24009
0.463273	0.239016
0.46357	0.240734
0.463866	0.242453
0.464162	0.239875
0.464459	0.240305
0.464755	0.242023
0.465052	0.239231
0.465348	0.240305
0.465644	0.241164
0.465941	0.242023
0.466237	0.242023
0.466534	0.241379
0.46683	0.23966
0.467126	0.242023
0.467423	0.240949
0.467719	0.239016
0.468016	0.23966
0.468312	0.243956
0.468608	0.240305
0.468905	0.241808
0.469201	0.242238
0.469498	0.240305
0.469794	0.24052
0.47009	0.241164
0.470387	0.24009
0.470683	0.241379
0.47098	0.240949
0.471276	0.242238
0.471572	0.239446
0.471869	0.239231
0.472165	0.238801
0.472462	0.24052
0.472758	0.241808
0.473054	0.242667
0.473351	0.242238
0.473647	0.241593
0.473944	0.24052
0.47424	0.241808
0.474536	0.240734
0.474833	0.240949
0.475129	0.241593
0.475426	0.241593
0.475722	0.240949
0.476018	0.241808
0.476315	0.241164
0.476611	0.240949
0.476908	0.240949
0.477204	0.241164
0.4775	0.242882
0.477797	0.240734
0.478093	0.240949
0.47839	0.241808
0.478686	0.238801
0.478982	0.239016
0.479279	0.24052
0.479575	0.242667
0.479872	0.241808
0.480168	0.240305
0.480464	0.239875
0.480761	0.240734
0.481057	0.239231
0.481354	0.239231
0.48165	0.24052
0.481946	0.239446
0.482243	0.239231
0.482539	0.242023
0.482836	0.243312
0.483132	0.239446
0.483428	0.241593
0.483725	0.242023
0.484021	0.241164
0.484318	0.242882
0.484614	0.240949
0.48491	0.24052
0.485207	0.24009
0.485503	0.241593
0.4858	0.242238
0.486096	0.240734
0.486392	0.238372
0.486689	0.241593
0.486985	0.239231
0.487282	0.239875
0.487578	0.241379
0.487874	0.240949
0.488171	0.241593
0.488467	0.24503
0.488764	0.242238
0.48906	0.238372
0.489356	0.238157
0.489653	0.241808
0.489949	0.242667
0.490246	0.240734
0.490542	0.240949
0.490838	0.239016
0.491135	0.242023
0.491431	0.24009
0.491728	0.239016
0.492024	0.241379
0.49232	0.237727
0.492617	0.242023
0.492913	0.242238
0.49321	0.241379
0.493506	0.239231
0.493802	0.240949
0.494099	0.242023
0.494395	0.240734
0.494692	0.240305
0.494988	0.242882
0.495284	0.241164
0.495581	0.24052
0.495877	0.239875
0.496174	0.241808
0.49647	0.24052
0.496766	0.239875
0.497063	0.239016
0.497359	0.241593
0.497656	0.242882
0.497952	0.242667
0.498248	0.240949
0.498545	0.240734
0.498841	0.240949
0.499138	0.241379
0.499434	0.241379
0.49973	0.242667
0.500027	0.240734
0.500323	0.241593
0.50062	0.24009
0.500916	0.241593
0.501212	0.24052
0.501509	0.240949
0.501805	0.24009
0.502102	0.242453
0.502398	0.241593
0.502694	0.241164
0.502991	0.242882
0.503287	0.24052
0.503584	0.239875
0.50388	0.241593
0.504176	0.241379
0.504473	0.241164
0.504769	0.24009
0.505066	0.241593
0.505362	0.240949
0.505658	0.239446
0.505955	0.240734
0.506251	0.241164
0.506548	0.240949
0.506844	0.23966
0.50714	0.240305
0.507437	0.240949
0.507733	0.240949
0.50803	0.242453
0.508326	0.242023
0.508622	0.241593
0.508919	0.244171
0.509215	0.241808
0.509512	0.24052
0.509808	0.24052
0.510104	0.240305
0.510401	0.240949
0.510697	0.238157
0.510994	0.239016
0.51129	0.23966
0.511586	0.239875
0.511883	0.242453
0.512179	0.242238
0.512476	0.240734
0.512772	0.239446
0.513068	0.239231
0.513365	0.24009
0.513661	0.23966
0.513958	0.241164
0.514254	0.24009
0.51455	0.240305
0.514847	0.239875
0.515143	0.240305
0.51544	0.240305
0.515736	0.24009
0.516032	0.243741
0.516329	0.241808
0.516625	0.241593
0.516922	0.239231
0.517218	0.239875
0.517514	0.239875
0.517811	0.240305
0.518107	0.240949
0.518404	0.239231
0.5187	0.237083
0.518996	0.242667
0.519293	0.239875
0.519589	0.241379
0.519886	0.239016
0.520182	0.242882
0.520478	0.24052
0.520775	0.242023
0.521071	0.23966
0.521368	0.240949
0.521664	0.241379
0.52196	0.23966
0.522257	0.242023
0.522553	0.242882
0.52285	0.239231
0.523146	0.241164
0.523442	0.24052
0.523739	0.243097
0.524035	0.240949
0.524332	0.240949
0.524628	0.239231
0.524924	0.240734
0.525221	0.242667
0.525517	0.240305
0.525814	0.241593
0.52611	0.240305
0.526406	0.240949
0.526703	0.240949
0.526999	0.23966
0.527296	0.24052
0.527592	0.24052
0.527888	0.242453
0.528185	0.242882
0.528481	0.242453
0.528778	0.243097
0.529074	0.243956
0.52937	0.246104
0.529667	0.240949
0.529963	0.241164
0.53026	0.237942
0.530556	0.240949
0.530852	0.240949
0.531149	0.239016
0.531445	0.240949
0.531742	0.24052
0.532038	0.241808
0.532334	0.24052
0.532631	0.24052
0.532927	0.241808
0.533224	0.23966
0.53352	0.239016
0.533816	0.237727
0.534113	0.24052
0.534409	0.239231
0.534706	0.240734
0.535002	0.241164
0.535298	0.239231
0.535595	0.240734
0.535891	0.242453
0.536188	0.242023
0.536484	0.240734
0.53678	0.241593
0.537077	0.244171
0.537373	0.23966
0.53767	0.240734
0.537966	0.242882
0.538262	0.241593
0.538559	0.241379
0.538855	0.242238
0.539152	0.240305
0.539448	0.238801
0.539744	0.24052
0.540041	0.24052
0.540337	0.238587
0.540634	0.24052
0.54093	0.240949
0.541226	0.242667
0.541523	0.239875
0.541819	0.238587
0.542116	0.242453
0.542412	0.239875
0.542708	0.241808
0.543005	0.24503
0.543301	0.240949
0.543598	0.24009
0.543894	0.240734
0.54419	0.241808
0.544487	0.242238
0.544783	0.24052
0.54508	0.24009
0.545376	0.240734
0.545672	0.24052
0.545969	0.24052
0.546265	0.241808
0.546562	0.24052
0.546858	0.239446
0.547154	0.239016
0.547451	0.243312
0.547747	0.24052
0.548044	0.241593
0.54834	0.240734
0.548636	0.243312
0.548933	0.240949
0.549229	0.241808
0.549526	0.247822
0.549822	0.240734
0.550118	0.239016
0.550415	0.238372
0.550711	0.241593
0.551008	0.241379
0.551304	0.24052
0.5516	0.239875
0.551897	0.243097
0.552193	0.238372
0.55249	0.241593
0.552786	0.239875
0.553082	0.240305
0.553379	0.242453
0.553675	0.239875
0.553972	0.239231
0.554268	0.242023
0.554564	0.240949
0.554861	0.242667
0.555157	0.240734
0.555454	0.239875
0.55575	0.239875
0.556046	0.240734
0.556343	0.242882
0.556639	0.241593
0.556936	0.240734
0.557232	0.240949
0.557528	0.242023
0.557825	0.238801
0.558121	0.240734
0.558418	0.236439
0.558714	0.23966
0.55901	0.238801
0.559307	0.238801
0.559603	0.240734
0.5599	0.239875
0.560196	0.24009
0.560492	0.240305
0.560789	0.241164
0.561085	0.239446
0.561382	0.24052
0.561678	0.241164
0.561974	0.241593
0.562271	0.239231
0.562567	0.242023
0.562864	0.242238
0.56316	0.241593
0.563456	0.24009
0.563753	0.24052
0.564049	0.240949
0.564346	0.239231
0.564642	0.240949
0.564938	0.242453
0.565235	0.239016
0.565531	0.241164
0.565828	0.239875
0.566124	0.239446
0.56642	0.240949
0.566717	0.242238
0.567013	0.243312
0.56731	0.24052
0.567606	0.241593
0.567902	0.240949
0.568199	0.239875
0.568495	0.24052
0.568792	0.238801
0.569088	0.242238
0.569384	0.240734
0.569681	0.243956
0.569977	0.245889
0.570274	0.243956
0.57057	0.241379
0.570866	0.242238
0.571163	0.241593
0.571459	0.239446
0.571756	0.239446
0.572052	0.241808
0.572348	0.24052
0.572645	0.241379
0.572941	0.240734
0.573238	0.243097
0.573534	0.240734
0.57383	0.237727
0.574127	0.24052
0.574423	0.240949
0.57472	0.24052
0.575016	0.242023
0.575312	0.240949
0.575609	0.24052
0.575905	0.242882
0.576202	0.23966
0.576498	0.24009
0.576794	0.240305
0.577091	0.239231
0.577387	0.243312
0.577684	0.242238
0.57798	0.241379
0.578276	0.238801
0.578573	0.240949
0.578869	0.23966
0.579166	0.241164
0.579462	0.242667
0.579758	0.238372
0.580055	0.237727
0.580351	0.240949
0.580648	0.240734
0.580944	0.23966
0.58124	0.241164
0.581537	0.241593
0.581833	0.240949
0.58213	0.241593
0.582426	0.24009
0.582722	0.241593
0.583019	0.242453
0.583315	0.241379
0.583612	0.240305
0.583908	0.242238
0.584204	0.23966
0.584501	0.239875
0.584797	0.240734
0.585094	0.242667
0.58539	0.240949
0.585686	0.24052
0.585983	0.238801
0.586279	0.240734
0.586576	0.240734
0.586872	0.240305
0.587168	0.242023
0.587465	0.239875
0.587761	0.240305
0.588058	0.240949
0.588354	0.240949
0.58865	0.24052
0.588947	0.24052
0.589243	0.242882
0.58954	0.237727
0.589836	0.241164
0.590132	0.242882
0.590429	0.242238
0.590725	0.23966
0.591022	0.243097
0.591318	0.24009
0.591614	0.239231
0.591911	0.239016
0.592207	0.241379
0.592504	0.238587
0.5928	0.241164
0.593096	0.23966
0.593393	0.239875
0.593689	0.24052
0.593986	0.240949
0.594282	0.241164
0.594578	0.238157
0.594875	0.244386
0.595171	0.241808
0.595468	0.238372
0.595764	0.239016
0.59606	0.24009
0.596357	0.239231
0.596653	0.237942
0.59695	0.240949
0.597246	0.240949
0.597542	0.242453
0.597839	0.241379
0.598135	0.242453
0.598432	0.241808
0.598728	0.239016
0.599024	0.241379
0.599321	0.238372
0.599617	0.240949
0.599914	0.241379
0.60021	0.239016
0.600506	0.239446
0.600803	0.239446
0.601099	0.240949
0.601396	0.240734
0.601692	0.24009
0.601988	0.242882
0.602285	0.242023
0.602581	0.24009
0.602878	0.243526
0.603174	0.23966
0.60347	0.239231
0.603767	0.240734
0.604063	0.241164
0.60436	0.239875
0.604656	0.239231
0.604952	0.24009
0.605249	0.239446
0.605545	0.239016
0.605842	0.242023
0.606138	0.240734
0.606434	0.241164
0.606731	0.240305
0.607027	0.238372
0.607324	0.239231
0.60762	0.238587
0.607916	0.24052
0.608213	0.239446
0.608509	0.241164
0.608806	0.24009
0.609102	0.241808
0.609398	0.242023
0.609695	0.24052
0.609991	0.24009
0.610288	0.247178
0.610584	0.244386
0.61088	0.24052
0.611177	0.240949
0.611473	0.241379
0.61177	0.240734
0.612066	0.240949
0.612362	0.240734
0.612659	0.241379
0.612955	0.24009
0.613252	0.241808
0.613548	0.239231
0.613844	0.241593
0.614141	0.24009
0.614437	0.237942
0.614734	0.241593
0.61503	0.24052
0.615326	0.241379
0.615623	0.242453
0.615919	0.24009
0.616216	0.241379
0.616512	0.24052
0.616808	0.241593
0.617105	0.242023
0.617401	0.241164
0.617698	0.242238
0.617994	0.239231
0.61829	0.242023
0.618587	0.243741
0.618883	0.237942
0.61918	0.236868
0.619476	0.24052
0.619772	0.241379
0.620069	0.242882
0.620365	0.242453
0.620662	0.24052
0.620958	0.23966
0.621254	0.240734
0.621551	0.240734
0.621847	0.241164
0.622144	0.241808
0.62244	0.240305
0.622736	0.239446
0.623033	0.240734
0.623329	0.241808
0.623626	0.241164
0.623922	0.240734
0.624218	0.241808
0.624515	0.240305
0.624811	0.241593
0.625108	0.240305
0.625404	0.23966
0.6257	0.238801
0.625997	0.240734
0.626293	0.239446
0.62659	0.241164
0.626886	0.242238
0.627182	0.241808
0.627479	0.241379
0.627775	0.24009
0.628072	0.241379
0.628368	0.238801
0.628664	0.239875
0.628961	0.23966
0.629257	0.241164
0.629554	0.24052
0.62985	0.243741
0.630146	0.240734
0.630443	0.24052
0.630739	0.245245
0.631036	0.242238
0.631332	0.238372
0.631628	0.242023
0.631925	0.240305
0.632221	0.242238
0.632518	0.239231
0.632814	0.240734
0.63311	0.24009
0.633407	0.243741
0.633703	0.239231
0.634	0.239231
0.634296	0.243097
0.634592	0.241164
0.634889	0.239875
0.635185	0.240734
0.635482	0.240305
0.635778	0.239231
0.636074	0.240949
0.636371	0.239875
0.636667	0.242453
0.636964	0.241593
0.63726	0.241379
0.637556	0.242667
0.637853	0.243526
0.638149	0.241164
0.638446	0.239446
0.638742	0.24009
0.639038	0.239446
0.639335	0.240734
0.639631	0.242238
0.639928	0.243741
0.640224	0.241808
0.64052	0.241593
0.640817	0.242453
0.641113	0.239875
0.64141	0.241808
0.641706	0.239875
0.642002	0.23966
0.642299	0.241593
0.642595	0.241379
0.642892	0.239016
0.643188	0.242667
0.643484	0.240305
0.643781	0.242023
0.644077	0.23966
0.644374	0.24009
0.64467	0.239016
0.644966	0.240734
0.645263	0.239016
0.645559	0.241379
0.645856	0.240305
0.646152	0.241164
0.646448	0.241164
0.646745	0.241379
0.647041	0.240305
0.647338	0.242667
0.647634	0.239231
0.64793	0.33266
0.648227	0.252118
0.648523	0.26436
0.64882	0.285194
0.649116	0.262642
0.649412	0.255554
0.649709	0.257487
0.650005	0.255125
0.650302	0.25491
0.650598	0.256198
0.650894	0.262642
0.651191	0.255984
0.651487	0.256843
0.651784	0.257272
0.65208	0.258561
0.652376	0.253406
0.652673	0.256198
0.652969	0.256198
0.653266	0.256198
0.653562	0.253406
0.653858	0.258131
0.654155	0.254265
0.654451	0.255554
0.654748	0.258131
0.655044	0.256198
0.65534	0.256843
0.655637	0.257272
0.655933	0.256628
0.65623	0.256628
0.656526	0.297651
0.656822	0.286697
0.657119	0.257702
0.657415	0.287986
0.657712	0.314833
0.658008	0.327075
0.658304	0.362514
0.658601	0.356285
0.658897	0.331586
0.659194	0.342754
0.65949	0.313974
0.659786	0.299369
0.660083	0.279824
0.660379	0.285194
0.660676	0.259205
0.660972	0.259635
0.661268	0.304738
0.661565	0.277247
0.661861	0.281757
0.662158	0.265863
0.662454	0.240734
0.66275	0.241379
0.663047	0.242882
0.663343	0.241808
0.66364	0.241164
0.663936	0.242238
0.664232	0.240734
0.664529	0.242238
0.664825	0.23966
0.665122	0.239231
0.665418	0.241164
0.665714	0.238372
0.666011	0.241379
0.666307	0.241808
0.666604	0.240305
0.6669	0.239875
0.667196	0.242238
0.667493	0.24052
0.667789	0.24052
0.668086	0.240734
0.668382	0.239875
0.668678	0.241593
0.668975	0.240734
0.669271	0.241808
0.669568	0.23966
0.669864	0.24009
0.67016	0.242667
0.670457	0.242453
0.670753	0.239446
0.67105	0.240734
0.671346	0.244171
0.671642	0.240949
0.671939	0.23966
0.672235	0.241808
0.672532	0.241808
0.672828	0.242882
0.673124	0.243741
0.673421	0.24052
0.673717	0.23966
0.674014	0.238801
0.67431	0.240734
0.674606	0.238157
0.674903	0.242238
0.675199	0.238587
0.675496	0.23966
0.675792	0.240734
0.676088	0.242023
0.676385	0.239875
0.676681	0.23966
0.676978	0.241808
0.677274	0.240734
0.67757	0.240949
0.677867	0.241808
0.678163	0.239875
0.67846	0.239875
0.678756	0.241593
0.679052	0.239875
0.679349	0.240949
0.679645	0.239231
0.679942	0.241593
0.680238	0.24052
0.680534	0.241593
0.680831	0.237942
0.681127	0.241379
0.681424	0.243526
0.68172	0.24009
0.682016	0.239875
0.682313	0.237727
0.682609	0.240734
0.682906	0.241379
0.683202	0.240949
0.683498	0.24009
0.683795	0.239875
0.684091	0.240305
0.684388	0.241379
0.684684	0.240734
0.68498	0.239875
0.685277	0.239231
0.685573	0.243312
0.68587	0.242238
0.686166	0.24052
0.686462	0.241164
0.686759	0.242023
0.687055	0.239231
0.687352	0.240305
0.687648	0.24052
0.687944	0.248252
0.688241	0.240949
0.688537	0.239016
0.688834	0.239875
0.68913	0.238587
0.689426	0.241593
0.689723	0.24009
0.690019	0.24052
0.690316	0.24052
0.690612	0.241164
0.690908	0.240305
0.691205	0.240734
0.691501	0.244815
0.691798	0.243526
0.692094	0.237727
0.69239	0.242453
0.692687	0.240305
0.692983	0.24052
0.69328	0.241593
0.693576	0.242667
0.693872	0.242238
0.694169	0.240949
0.694465	0.241164
0.694762	0.242238
0.695058	0.238157
0.695354	0.243312
0.695651	0.239231
0.695947	0.241808
0.696244	0.240305
0.69654	0.240305
0.696836	0.23966
0.697133	0.239875
0.697429	0.240305
0.697726	0.24052
0.698022	0.24009
0.698318	0.240734
0.698615	0.240949
0.698911	0.240305
0.699208	0.242667
0.699504	0.24052
0.6998	0.240949
0.700097	0.241593
0.700393	0.24052
0.70069	0.240949
0.700986	0.241808
0.701282	0.242453
0.701579	0.242023
0.701875	0.242453
0.702172	0.242238
0.702468	0.243097
0.702764	0.242453
0.703061	0.241164
0.703357	0.239875
0.703654	0.240305
0.70395	0.237942
0.704246	0.239875
0.704543	0.24052
0.704839	0.23966
0.705136	0.242238
0.705432	0.238801
0.705728	0.23966
0.706025	0.241164
0.706321	0.240734
0.706618	0.240305
0.706914	0.241593
0.70721	0.239231
0.707507	0.242238
0.707803	0.240949
0.7081	0.239446
0.708396	0.241379
0.708692	0.240949
0.708989	0.238587
0.709285	0.239875
0.709582	0.23966
0.709878	0.242023
0.710174	0.24052
0.710471	0.24009
0.710767	0.239016
0.711064	0.238801
0.71136	0.241164
0.711656	0.244386
0.711953	0.243956
0.712249	0.240949
0.712546	0.240734
0.712842	0.241379
0.713138	0.241379
0.713435	0.242238
0.713731	0.242023
0.714028	0.240949
0.714324	0.241164
0.71462	0.243956
0.714917	0.241379
0.715213	0.241164
0.71551	0.239875
0.715806	0.239446
0.716102	0.238801
0.716399	0.239875
0.716695	0.240949
0.716992	0.242453
0.717288	0.243097
0.717584	0.242453
0.717881	0.240734
0.718177	0.240949
0.718474	0.240305
0.71877	0.243526
0.719066	0.241379
0.719363	0.239446
0.719659	0.241164
0.719956	0.24009
0.720252	0.23966
0.720548	0.24009
0.720845	0.241164
0.721141	0.241164
0.721438	0.239446
0.721734	0.23966
0.72203	0.241808
0.722327	0.242882
0.722623	0.242667
0.72292	0.243097
0.723216	0.242023
0.723512	0.240734
0.723809	0.238157
0.724105	0.239231
0.724402	0.23966
0.724698	0.241593
0.724994	0.242453
0.725291	0.24009
0.725587	0.240949
0.725884	0.241593
0.72618	0.242667
0.726476	0.242667
0.726773	0.24052
0.727069	0.23966
0.727366	0.239875
0.727662	0.24052
0.727958	0.242453
0.728255	0.243526
0.728551	0.24009
0.728848	0.243526
0.729144	0.240949
0.72944	0.242453
0.729737	0.241593
0.730033	0.241379
0.73033	0.241379
0.730626	0.239875
0.730922	0.238587
0.731219	0.243097
0.731515	0.238587
0.731812	0.240305
0.732108	0.244171
0.732404	0.247392
0.732701	0.24009
0.732997	0.242453
0.733294	0.240305
0.73359	0.241379
0.733886	0.243526
0.734183	0.240305
0.734479	0.23966
0.734776	0.240949
0.735072	0.240305
0.735368	0.240305
0.735665	0.24009
0.735961	0.239016
0.736258	0.241593
0.736554	0.239016
0.73685	0.241808
0.737147	0.240734
0.737443	0.24009
0.73774	0.241164
0.738036	0.24009
0.738332	0.239016
0.738629	0.239446
0.738925	0.24052
0.739222	0.241379
0.739518	0.238801
0.739814	0.24052
0.740111	0.241808
0.740407	0.242238
0.740704	0.23966
0.741	0.240305
0.741296	0.238801
0.741593	0.239446
0.741889	0.241379
0.742186	0.240734
0.742482	0.240305
0.742778	0.242667
0.743075	0.239231
0.743371	0.238801
0.743668	0.241164
0.743964	0.239446
0.74426	0.240949
0.744557	0.24052
0.744853	0.242023
0.74515	0.242238
0.745446	0.240949
0.745742	0.243312
0.746039	0.243741
0.746335	0.242882
0.746632	0.24009
0.746928	0.23966
0.747224	0.240734
0.747521	0.241808
0.747817	0.239446
0.748114	0.239231
0.74841	0.241379
0.748706	0.238801
0.749003	0.240949
0.749299	0.238372
0.749596	0.23966
0.749892	0.23966
0.750188	0.241593
0.750485	0.241808
0.750781	0.24052
0.751078	0.24009
0.751374	0.239231
0.75167	0.24009
0.751967	0.24009
0.752263	0.239875
0.75256	0.243097
0.752856	0.247178
0.753152	0.242453
0.753449	0.242667
0.753745	0.241593
0.754042	0.23966
0.754338	0.241808
0.754634	0.241379
0.754931	0.239231
0.755227	0.238372
0.755524	0.241379
0.75582	0.240734
0.756116	0.243097
0.756413	0.240949
0.756709	0.240734
0.757006	0.237727
0.757302	0.240734
0.757598	0.240734
0.757895	0.241379
0.758191	0.239446
0.758488	0.238587
0.758784	0.24052
0.75908	0.240305
0.759377	0.243526
0.759673	0.240949
0.75997	0.23966
0.760266	0.239231
0.760562	0.241379
0.760859	0.242023
0.761155	0.238801
0.761452	0.24009
0.761748	0.236868
0.762044	0.240305
0.762341	0.242453
0.762637	0.241379
0.762934	0.239875
0.76323	0.240949
0.763526	0.239875
0.763823	0.242453
0.764119	0.241593
0.764416	0.242023
0.764712	0.242238
0.765008	0.240734
0.765305	0.238587
0.765601	0.239875
0.765898	0.241379
0.766194	0.243097
0.76649	0.239016
0.766787	0.241379
0.767083	0.24009
0.76738	0.24052
0.767676	0.242238
0.767972	0.241164
0.768269	0.240734
0.768565	0.24052
0.768862	0.23966
0.769158	0.240734
0.769454	0.239016
0.769751	0.240949
0.770047	0.241593
0.770344	0.237942
0.77064	0.237942
0.770936	0.240734
0.771233	0.24052
0.771529	0.241593
0.771826	0.241808
0.772122	0.241808
0.772418	0.243956
0.772715	0.237942
0.773011	0.246748
0.773308	0.242667
0.773604	0.240305
0.7739	0.237727
0.774197	0.241593
0.774493	0.240949
0.77479	0.239016
0.775086	0.239446
0.775382	0.241164
0.775679	0.239875
0.775975	0.241808
0.776272	0.239231
0.776568	0.239875
0.776864	0.241808
0.777161	0.242453
0.777457	0.240949
0.777754	0.241379
0.77805	0.239446
0.778346	0.241379
0.778643	0.243312
0.778939	0.239016
0.779236	0.24052
0.779532	0.239016
0.779828	0.240949
0.780125	0.239446
0.780421	0.240734
0.780718	0.24052
0.781014	0.238587
0.78131	0.242667
0.781607	0.23966
0.781903	0.241379
0.7822	0.242882
0.782496	0.23966
0.782792	0.240949
0.783089	0.241164
0.783385	0.241593
0.783682	0.242453
0.783978	0.240734
0.784274	0.239875
0.784571	0.24052
0.784867	0.242023
0.785164	0.240305
0.78546	0.240949
0.785756	0.239016
0.786053	0.240734
0.786349	0.242453
0.786646	0.239446
0.786942	0.241379
0.787238	0.240949
0.787535	0.24052
0.787831	0.242882
0.788128	0.241593
0.788424	0.23966
0.78872	0.241808
0.789017	0.240734
0.789313	0.241164
0.78961	0.240734
0.789906	0.242882
0.790202	0.241164
0.790499	0.23966
0.790795	0.239875
0.791092	0.241808
0.791388	0.241164
0.791684	0.240949
0.791981	0.240949
0.792277	0.241808
0.792574	0.241379
0.79287	0.242238
0.793166	0.24009
0.793463	0.246104
0.793759	0.24503
0.794056	0.240734
0.794352	0.240305
0.794648	0.240949
0.794945	0.241808
0.795241	0.242882
0.795538	0.241379
0.795834	0.240734
0.79613	0.242882
0.796427	0.239446
0.796723	0.241593
0.79702	0.240734
0.797316	0.240305
0.797612	0.241593
0.797909	0.23966
0.798205	0.24009
0.798502	0.242667
0.798798	0.242453
0.799094	0.241808
0.799391	0.239446
0.799687	0.243312
0.799984	0.240305
0.80028	0.240305
0.800576	0.240305
0.800873	0.242023
0.801169	0.239875
0.801466	0.242453
0.801762	0.239231
0.802058	0.240949
0.802355	0.239446
0.802651	0.242667
0.802948	0.239016
0.803244	0.240734
0.80354	0.242238
0.803837	0.241593
0.804133	0.241164
0.80443	0.23966
0.804726	0.23966
0.805022	0.242023
0.805319	0.24052
0.805615	0.243526
0.805912	0.244386
0.806208	0.242238
0.806504	0.240305
0.806801	0.241164
0.807097	0.239875
0.807394	0.241164
0.80769	0.240305
0.807986	0.241379
0.808283	0.241379
0.808579	0.241593
0.808876	0.238157
0.809172	0.240734
0.809468	0.238157
0.809765	0.24009
0.810061	0.240305
0.810358	0.240305
0.810654	0.24052
0.81095	0.240305
0.811247	0.239875
0.811543	0.244386
0.81184	0.240734
0.812136	0.241593
0.812432	0.242023
0.812729	0.240305
0.813025	0.239446
0.813322	0.242453
0.813618	0.24052
0.813914	0.240305
0.814211	0.242667
0.814507	0.239231
0.814804	0.241379
0.8151	0.23966
0.815396	0.2446
0.815693	0.240949
0.815989	0.243312
0.816286	0.242882
0.816582	0.241164
0.816878	0.239875
0.817175	0.241379
0.817471	0.242882
0.817768	0.241164
0.818064	0.240305
0.81836	0.241379
0.818657	0.243097
0.818953	0.240305
0.81925	0.240305
0.819546	0.240949
0.819842	0.238372
0.820139	0.241379
0.820435	0.239016
0.820732	0.241379
0.821028	0.241379
0.821324	0.24009
0.821621	0.242882
0.821917	0.241379
0.822214	0.241593
0.82251	0.240305
0.822806	0.23966
0.823103	0.241164
0.823399	0.240949
0.823696	0.240305
0.823992	0.24052
0.824288	0.240305
0.824585	0.242882
0.824881	0.242667
0.825178	0.241379
0.825474	0.240734
0.82577	0.24052
0.826067	0.241379
0.826363	0.239016
0.82666	0.239875
0.826956	0.238587
0.827252	0.241379
0.827549	0.241379
0.827845	0.241164
0.828142	0.24009
0.828438	0.242667
0.828734	0.238587
0.829031	0.239016
0.829327	0.240305
0.829624	0.241164
0.82992	0.24052
0.830216	0.242023
0.830513	0.240949
0.830809	0.23966
0.831106	0.241379
0.831402	0.24052
0.831698	0.24052
0.831995	0.241593
0.832291	0.243097
0.832588	0.23966
0.832884	0.238801
0.83318	0.241164
0.833477	0.239446
0.833773	0.241164
0.83407	0.242453
0.834366	0.243312
0.834662	0.248252
0.834959	0.239016
0.835255	0.238801
0.835552	0.240305
0.835848	0.239446
0.836144	0.240949
0.836441	0.240305
0.836737	0.242882
0.837034	0.240734
0.83733	0.241379
0.837626	0.240949
0.837923	0.244171
0.838219	0.237942
0.838516	0.24009
0.838812	0.242453
0.839108	0.241808
0.839405	0.239446
0.839701	0.24052
0.839998	0.239446
0.840294	0.242023
0.84059	0.241808
0.840887	0.242238
0.841183	0.241379
0.84148	0.242453
0.841776	0.243312
0.842072	0.241164
0.842369	0.240734
0.842665	0.243526
0.842962	0.239875
0.843258	0.241593
0.843554	0.241379
0.843851	0.240305
0.844147	0.241808
0.844444	0.241808
0.84474	0.241808
0.845036	0.240305
0.845333	0.241593
0.845629	0.242023
0.845926	0.241164
0.846222	0.241164
0.846518	0.243526
0.846815	0.238801
0.847111	0.239875
0.847408	0.241379
0.847704	0.24009
0.848	0.242453
0.848297	0.240734
0.848593	0.241593
0.84889	0.240734
0.849186	0.241808
0.849482	0.24052
0.849779	0.241379
0.850075	0.241379
0.850372	0.239875
0.850668	0.241164
0.850964	0.241164
0.851261	0.240734
0.851557	0.239446
0.851854	0.23966
0.85215	0.239875
0.852446	0.239016
0.852743	0.242238
0.853039	0.24052
0.853336	0.241164
0.853632	0.242453
0.853928	0.242238
0.854225	0.241808
0.854521	0.239446
0.854818	0.244815
0.855114	0.247178
0.85541	0.240949
0.855707	0.239446
0.856003	0.24009
0.8563	0.239446
0.856596	0.243312
0.856892	0.241379
0.857189	0.241164
0.857485	0.239875
0.857782	0.240949
0.858078	0.240734
0.858374	0.240949
0.858671	0.241164
0.858967	0.240734
0.859264	0.237942
0.85956	0.243097
0.859856	0.241164
0.860153	0.241593
0.860449	0.240949
0.860746	0.240734
0.861042	0.24052
0.861338	0.240734
0.861635	0.239231
0.861931	0.240734
0.862228	0.24052
0.862524	0.24052
0.86282	0.24052
0.863117	0.241593
0.863413	0.242023
0.86371	0.239016
0.864006	0.242667
0.864302	0.24009
0.864599	0.242453
0.864895	0.239875
0.865192	0.241593
0.865488	0.239231
0.865784	0.239016
0.866081	0.240949
0.866377	0.243526
0.866674	0.241808
0.86697	0.241164
0.867266	0.24052
0.867563	0.23966
0.867859	0.242023
0.868156	0.24009
0.868452	0.240305
0.868748	0.240305
0.869045	0.242238
0.869341	0.241164
0.869638	0.241379
0.869934	0.238801
0.87023	0.239875
0.870527	0.238801
0.870823	0.243097
0.87112	0.241164
0.871416	0.241164
0.871712	0.241593
0.872009	0.240305
0.872305	0.242453
0.872602	0.244171
0.872898	0.24009
0.873194	0.24052
0.873491	0.240949
0.873787	0.237298
0.874084	0.240734
0.87438	0.241808
0.874676	0.241593
0.874973	0.240734
0.875269	0.244386
0.875566	0.243741
0.875862	0.239875
0.876158	0.241593
0.876455	0.241164
0.876751	0.24052
0.877048	0.241379
0.877344	0.238801
0.87764	0.241164
0.877937	0.239446
0.878233	0.241379
0.87853	0.241164
0.878826	0.240949
0.879122	0.243097
0.879419	0.240734
0.879715	0.242453
0.880012	0.239231
0.880308	0.240949
0.880604	0.239016
0.880901	0.241808
0.881197	0.238801
0.881494	0.240305
0.88179	0.239875
0.882086	0.241164
0.882383	0.23966
0.882679	0.244171
0.882976	0.240305
0.883272	0.23966
0.883568	0.240734
0.883865	0.239231
0.884161	0.238157
0.884458	0.24009
0.884754	0.24009
0.88505	0.24009
0.885347	0.238587
0.885643	0.23966
0.88594	0.241379
0.886236	0.241593
0.886532	0.240305
0.886829	0.240734
0.887125	0.242023
0.887422	0.240734
0.887718	0.24009
0.888014	0.241379
0.888311	0.242238
0.888607	0.242238
0.888904	0.240734
0.8892	0.238801
0.889496	0.241164
0.889793	0.238801
0.890089	0.240949
0.890386	0.240734
0.890682	0.23966
0.890978	0.242023
0.891275	0.241808
0.891571	0.2446
0.891868	0.241379
0.892164	0.242238
0.89246	0.24052
0.892757	0.238587
0.893053	0.240305
0.89335	0.242453
0.893646	0.240734
0.893942	0.238801
0.894239	0.239446
0.894535	0.241379
0.894832	0.241593
0.895128	0.239875
0.895424	0.241808
0.895721	0.243312
0.896017	0.244815
0.896314	0.242453
0.89661	0.239875
0.896906	0.242667
0.897203	0.240305
0.897499	0.239875
0.897796	0.240734
0.898092	0.24009
0.898388	0.23966
0.898685	0.239231
0.898981	0.241379
0.899278	0.239016
0.899574	0.24052
0.89987	0.241164
0.900167	0.241808
0.900463	0.239446
0.90076	0.243526
0.901056	0.241593
0.901352	0.240949
0.901649	0.238587
0.901945	0.238372
0.902242	0.24009
0.902538	0.241593
0.902834	0.239231
0.903131	0.241164
0.903427	0.242453
0.903724	0.242238
0.90402	0.242453
0.904316	0.241593
0.904613	0.243741
0.904909	0.24009
0.905206	0.241379
0.905502	0.243097
0.905798	0.238801
0.906095	0.239446
0.906391	0.242023
0.906688	0.242882
0.906984	0.241164
0.90728	0.23966
0.907577	0.242667
0.907873	0.239875
0.90817	0.240949
0.908466	0.24009
0.908762	0.237942
0.909059	0.240734
0.909355	0.244171
0.909652	0.239016
0.909948	0.240305
0.910244	0.24009
0.910541	0.240949
0.910837	0.240949
0.911134	0.240949
0.91143	0.24009
0.911726	0.242023
0.912023	0.240734
0.912319	0.240949
0.912616	0.242023
0.912912	0.239016
0.913208	0.240949
0.913505	0.24052
0.913801	0.243956
0.914098	0.241808
0.914394	0.242238
0.91469	0.242023
0.914987	0.240949
0.915283	0.239875
0.91558	0.240305
0.915876	0.240734
0.916172	0.242453
0.916469	0.241808
0.916765	0.241593
0.917062	0.241164
0.917358	0.238801
0.917654	0.241808
0.917951	0.237942
0.918247	0.239446
0.918544	0.240734
0.91884	0.241808
0.919136	0.240734
0.919433	0.240949
0.919729	0.240734
0.920026	0.24009
0.920322	0.241164
0.920618	0.241593
0.920915	0.24009
0.921211	0.240734
0.921508	0.239446
0.921804	0.240949
0.9221	0.242667
0.922397	0.237513
0.922693	0.24009
0.92299	0.241593
0.923286	0.241808
0.923582	0.241164
0.923879	0.239231
0.924175	0.24009
0.924472	0.24009
0.924768	0.24052
0.925064	0.24009
0.925361	0.23966
0.925657	0.239446
0.925954	0.241164
0.92625	0.240305
0.926546	0.239231
0.926843	0.242023
0.927139	0.239446
0.927436	0.239016
0.927732	0.242882
0.928028	0.240734
0.928325	0.24009
0.928621	0.240305
0.928918	0.241164
0.929214	0.239446
0.92951	0.240305
0.929807	0.241379
0.930103	0.240734
0.9304	0.239231
0.930696	0.241379
0.930992	0.240305
0.931289	0.244171
0.931585	0.238801
0.931882	0.239231
0.932178	0.24052
0.932474	0.24009
0.932771	0.241164
0.933067	0.24009
0.933364	0.24052
0.93366	0.239446
0.933956	0.239875
0.934253	0.240305
0.934549	0.239231
0.934846	0.241164
0.935142	0.243741
0.935438	0.241164
0.935735	0.24009
0.936031	0.238587
0.936328	0.241593
0.936624	0.244386
0.93692	0.24009
0.937217	0.240734
0.937513	0.241379
0.93781	0.240305
0.938106	0.240734
0.938402	0.23966
0.938699	0.241808
0.938995	0.239016
0.939292	0.241808
0.939588	0.23966
0.939884	0.240305
0.940181	0.242667
0.940477	0.242023
0.940774	0.241379
0.94107	0.240949
0.941366	0.241164
0.941663	0.240305
0.941959	0.240949
0.942256	0.241379
0.942552	0.242453
0.942848	0.241164
0.943145	0.242882
0.943441	0.23966
0.943738	0.242023
0.944034	0.24009
0.94433	0.239016
0.944627	0.239875
0.944923	0.240734
0.94522	0.24052
0.945516	0.243526
0.945812	0.240734
0.946109	0.242453
0.946405	0.240734
0.946702	0.239231
0.946998	0.243312
0.947294	0.239231
0.947591	0.238801
0.947887	0.240305
0.948184	0.237942
0.94848	0.241808
0.948776	0.243097
0.949073	0.238157
0.949369	0.240305
0.949666	0.237298
0.949962	0.24052
0.950258	0.242453
0.950555	0.241808
0.950851	0.241379
0.951148	0.239875
0.951444	0.242023
0.95174	0.241164
0.952037	0.238801
0.952333	0.239231
0.95263	0.238587
0.952926	0.241164
0.953222	0.239875
0.953519	0.240305
0.953815	0.241164
0.954112	0.242453
0.954408	0.238801
0.954704	0.239016
0.955001	0.241808
0.955297	0.23966
0.955594	0.24009
0.95589	0.24009
0.956186	0.241808
0.956483	0.24009
0.956779	0.241164
0.957076	0.243956
0.957372	0.243312
0.957668	0.239446
0.957965	0.242453
0.958261	0.244815
0.958558	0.241164
0.958854	0.241164
0.95915	0.242238
0.959447	0.24009
0.959743	0.238801
0.96004	0.24052
0.960336	0.241164
0.960632	0.240949
0.960929	0.240949
0.961225	0.236868
0.961522	0.241808
0.961818	0.272736
0.962114	0.280683
0.962411	0.255984
0.962707	0.260064
0.963004	0.261783
0.9633	0.254265
0.963596	0.256843
0.963893	0.256628
0.964189	0.255984
0.964486	0.257702
0.964782	0.258346
0.965078	0.255554
0.965375	0.255769
0.965671	0.256198
0.965968	0.255984
0.966264	0.255554
0.96656	0.257702
0.966857	0.256198
0.967153	0.256198
0.96745	0.254051
0.967746	0.256843
0.968042	0.253192
0.968339	0.257487
0.968635	0.256843
0.968932	0.258346
0.969228	0.254265
0.969524	0.255125
0.969821	0.25491
0.970117	0.255125
0.970414	0.302805
0.97071	0.284549
0.971006	0.297221
0.971303	0.293785
0.971599	0.295503
0.971896	0.356285
0.972192	0.329008
0.972488	0.33223
0.972785	0.33717
0.973081	0.328364
0.973378	0.351775
0.973674	0.341895
0.97397	0.333519
0.974267	0.348768
0.974563	0.345761
0.97486	0.333304
0.975156	0.332445
0.975452	0.348768
0.975749	0.260709
0.976045	0.260494
0.976342	0.26887
0.976638	0.285194
0.976934	0.258131
0.977231	0.270803
0.977527	0.271448
0.977824	0.333948
0.97812	0.326861
0.978416	0.350916
0.978713	0.332015
0.979009	0.328579
0.979306	0.349842
0.979602	0.273381
0.979898	0.260709
0.980195	0.260709
0.980491	0.262642
0.980788	0.26479
0.981084	0.25942
0.98138	0.256413
0.981677	0.258991
0.981973	0.258131
0.98227	0.280683
0.982566	0.274025
0.982862	0.324928
0.983159	0.330297
0.983455	0.328149
0.983752	0.330941
0.984048	0.330512
0.984344	0.339533
0.984641	0.327505
0.984937	0.326646
0.985234	0.339962
0.98553	0.265863
0.985826	0.258346
0.986123	0.260494
0.986419	0.257917
0.986716	0.253621
0.987012	0.258131
0.987308	0.271448
0.987605	0.279609
0.987901	0.257702
0.988198	0.255769
0.988494	0.260279
0.98879	0.2693
0.989087	0.255339
0.989383	0.260494
0.98968	0.257058
0.989976	0.256843
0.990272	0.276602
0.990569	0.263071
0.990865	0.25985
0.991162	0.255125
0.991458	0.257917
0.991754	0.25942
0.992051	0.259205
0.992347	0.274884
0.992644	0.256843
0.99294	0.255984
0.993236	0.270589
0.993533	0.271448
0.993829	0.25942
0.994126	0.258346
0.994422	0.276173
0.994718	0.299799
0.995015	0.333519
0.995311	0.345976
0.995608	0.334163
0.995904	0.330297
0.9962	0.334163
0.996497	0.336741
0.996793	0.348124
0.99709	0.332445
0.997386	0.331586
0.997682	0.260709
0.997979	0.260494
0.998275	0.270589
0.998572	0.262857
0.998868	0.258561
0.999164	0.256843
0.999461	0.258776
0.999757	0.255554
1.00005	0.258561
1.00035	0.258346
1.00065	0.256198
1.00094	0.256198
1.00124	0.269944
1.00154	0.265863
1.00183	0.259205
1.00213	0.258561
1.00242	0.258346
1.00272	0.259635
1.00302	0.260494
1.00331	0.273596
1.00361	0.310108
1.00391	0.30796
1.0042	0.30796
1.0045	0.255554
1.0048	0.255554
1.00509	0.257702
1.00539	0.254695
1.00569	0.255984
1.00598	0.240734
1.00628	0.24052
1.00657	0.24009
1.00687	0.242238
1.00717	0.237942
1.00746	0.242667
1.00776	0.24009
1.00806	0.240305
1.00835	0.242023
1.00865	0.241164
1.00895	0.240305
1.00924	0.23966
1.00954	0.239446
1.00983	0.239875
1.01013	0.24052
1.01043	0.238157
1.01072	0.239446
1.01102	0.241593
1.01132	0.239231
1.01161	0.241379
1.01191	0.242023
1.01221	0.241808
1.0125	0.240949
1.0128	0.24052
1.0131	0.239016
1.01339	0.239231
1.01369	0.241808
1.01398	0.238587
1.01428	0.24052
1.01458	0.242023
1.01487	0.23966
1.01517	0.243097
1.01547	0.243312
1.01576	0.24009
1.01606	0.239446
1.01636	0.242023
1.01665	0.240949
1.01695	0.241379
1.01724	0.239231
1.01754	0.238801
1.01784	0.242453
1.01813	0.243741
1.01843	0.244171
1.01873	0.241164
1.01902	0.241808
1.01932	0.23966
1.01962	0.240734
1.01991	0.240949
1.02021	0.239875
1.02051	0.241808
1.0208	0.239446
1.0211	0.243097
1.02139	0.241379
1.02169	0.238801
1.02199	0.240305
1.02228	0.241593
1.02258	0.237942
1.02288	0.240949
1.02317	0.242238
1.02347	0.24009
1.02377	0.24009
1.02406	0.241808
1.02436	0.240734
1.02465	0.239446
1.02495	0.242667
1.02525	0.241164
1.02554	0.242023
1.02584	0.241379
1.02614	0.242023
1.02643	0.24052
1.02673	0.241593
1.02703	0.241808
1.02732	0.241808
1.02762	0.240949
1.02792	0.240734
1.02821	0.241379
1.02851	0.243097
1.0288	0.239231
1.0291	0.241379
1.0294	0.239875
1.02969	0.242453
1.02999	0.242453
1.03029	0.242238
1.03058	0.243097
1.03088	0.241593
1.03118	0.241593
1.03147	0.236654
1.03177	0.243526
1.03206	0.241808
1.03236	0.242023
1.03266	0.238801
1.03295	0.241164
1.03325	0.243526
1.03355	0.237727
1.03384	0.24009
1.03414	0.241808
1.03444	0.24052
1.03473	0.241808
1.03503	0.240734
1.03533	0.24052
1.03562	0.241164
1.03592	0.238801
1.03621	0.24009
1.03651	0.239446
1.03681	0.241379
1.0371	0.242453
1.0374	0.239875
1.0377	0.242667
1.03799	0.241164
1.03829	0.241379
1.03859	0.242882
1.03888	0.246319
1.03918	0.24052
1.03947	0.240734
1.03977	0.24052
1.04007	0.242667
1.04036	0.240305
1.04066	0.240305
1.04096	0.24009
1.04125	0.242453
1.04155	0.240734
1.04185	0.241164
1.04214	0.240949
1.04244	0.242023
1.04274	0.238587
1.04303	0.239446
1.04333	0.240734
1.04362	0.242453
1.04392	0.240949
1.04422	0.242453
1.04451	0.241808
1.04481	0.242023
1.04511	0.241808
1.0454	0.2446
1.0457	0.239446
1.046	0.242023
1.04629	0.239016
1.04659	0.243097
1.04688	0.239016
1.04718	0.239875
1.04748	0.243312
1.04777	0.241379
1.04807	0.241164
1.04837	0.239231
1.04866	0.242023
1.04896	0.239446
1.04926	0.241379
1.04955	0.239231
1.04985	0.24009
1.05015	0.238801
1.05044	0.239231
1.05074	0.242238
1.05103	0.240949
1.05133	0.24052
1.05163	0.241379
1.05192	0.240305
1.05222	0.243097
1.05252	0.241593
1.05281	0.24009
1.05311	0.24052
1.05341	0.24009
1.0537	0.241593
1.054	0.23966
1.05429	0.237942
1.05459	0.240734
1.05489	0.240949
1.05518	0.242023
1.05548	0.24052
1.05578	0.24052
1.05607	0.241379
1.05637	0.241379
1.05667	0.242023
1.05696	0.243956
1.05726	0.238801
1.05756	0.239446
1.05785	0.24052
1.05815	0.242023
1.05844	0.241164
1.05874	0.240949
1.05904	0.243312
1.05933	0.245459
1.05963	0.24052
1.05993	0.238801
1.06022	0.242453
1.06052	0.238801
1.06082	0.238801
1.06111	0.241379
1.06141	0.240734
1.0617	0.241164
1.062	0.244386
1.0623	0.240734
1.06259	0.24052
1.06289	0.241379
1.06319	0.240305
1.06348	0.242667
1.06378	0.239016
1.06408	0.241379
1.06437	0.242453
1.06467	0.240949
1.06497	0.23966
1.06526	0.242023
1.06556	0.238372
1.06585	0.242882
1.06615	0.240305
1.06645	0.23966
1.06674	0.238587
1.06704	0.242238
1.06734	0.24052
1.06763	0.240734
1.06793	0.240305
1.06823	0.242667
1.06852	0.242667
1.06882	0.239875
1.06911	0.24052
1.06941	0.24052
1.06971	0.24009
1.07	0.243312
1.0703	0.239016
1.0706	0.239231
1.07089	0.242667
1.07119	0.243956
1.07149	0.240734
1.07178	0.23966
1.07208	0.238801
1.07238	0.24009
1.07267	0.24052
1.07297	0.240305
1.07326	0.239231
1.07356	0.242238
1.07386	0.240305
1.07415	0.239875
1.07445	0.239016
1.07475	0.238801
1.07504	0.239446
1.07534	0.241593
1.07564	0.242667
1.07593	0.24009
1.07623	0.242453
1.07652	0.241164
1.07682	0.24052
1.07712	0.237727
1.07741	0.24052
1.07771	0.241164
1.07801	0.240305
1.0783	0.24009
1.0786	0.242023
1.0789	0.238801
1.07919	0.242238
1.07949	0.243312
1.07979	0.24503
1.08008	0.240305
1.08038	0.240305
1.08067	0.241379
1.08097	0.241379
1.08127	0.240734
1.08156	0.241164
1.08186	0.23966
1.08216	0.239016
1.08245	0.240734
1.08275	0.240734
1.08305	0.240734
1.08334	0.241164
1.08364	0.242023
1.08393	0.239231
1.08423	0.239231
1.08453	0.243097
1.08482	0.240305
1.08512	0.23966
1.08542	0.24009
1.08571	0.240949
1.08601	0.24009
1.08631	0.239446
1.0866	0.238372
1.0869	0.242238
1.0872	0.239446
1.08749	0.238801
1.08779	0.241164
1.08808	0.240305
1.08838	0.24052
1.08868	0.242238
1.08897	0.24052
1.08927	0.240734
1.08957	0.242023
1.08986	0.240949
1.09016	0.239016
1.09046	0.240734
1.09075	0.240949
1.09105	0.243097
1.09134	0.240949
1.09164	0.242453
1.09194	0.238801
1.09223	0.241379
1.09253	0.240734
1.09283	0.241164
1.09312	0.241593
1.09342	0.240949
1.09372	0.239231
1.09401	0.239446
1.09431	0.240305
1.09461	0.241379
1.0949	0.238587
1.0952	0.237083
1.09549	0.240305
1.09579	0.239231
1.09609	0.242238
1.09638	0.240305
1.09668	0.24052
1.09698	0.240305
1.09727	0.241164
1.09757	0.238801
1.09787	0.240734
1.09816	0.242453
1.09846	0.241164
1.09875	0.238587
1.09905	0.240734
1.09935	0.242023
1.09964	0.241164
1.09994	0.244386
1.10024	0.246533
1.10053	0.240305
1.10083	0.239231
1.10113	0.240734
1.10142	0.242023
1.10172	0.24052
1.10202	0.241593
1.10231	0.242238
1.10261	0.24052
1.1029	0.240949
1.1032	0.24009
1.1035	0.241593
1.10379	0.243097
1.10409	0.24052
1.10439	0.239016
1.10468	0.243312
1.10498	0.239875
1.10528	0.241808
1.10557	0.242882
1.10587	0.239446
1.10616	0.241379
1.10646	0.238801
1.10676	0.237942
1.10705	0.239231
1.10735	0.239231
1.10765	0.239875
1.10794	0.239446
1.10824	0.243097
1.10854	0.238587
1.10883	0.242453
1.10913	0.238587
1.10943	0.238801
1.10972	0.239016
1.11002	0.239875
1.11031	0.24052
1.11061	0.241808
1.11091	0.236654
1.1112	0.24009
1.1115	0.239446
1.1118	0.241808
1.11209	0.23966
1.11239	0.24052
1.11269	0.241379
1.11298	0.237513
1.11328	0.242238
1.11357	0.241593
1.11387	0.237942
1.11417	0.240734
1.11446	0.243097
1.11476	0.24052
1.11506	0.241808
1.11535	0.239016
1.11565	0.242238
1.11595	0.241808
1.11624	0.241593
1.11654	0.241593
1.11684	0.239231
1.11713	0.242238
1.11743	0.24052
1.11772	0.239446
1.11802	0.240305
1.11832	0.239231
1.11861	0.239446
1.11891	0.238801
1.11921	0.24052
1.1195	0.23966
1.1198	0.241379
1.1201	0.242667
1.12039	0.242667
1.12069	0.244171
1.12098	0.241808
1.12128	0.242238
1.12158	0.241164
1.12187	0.241593
1.12217	0.241808
1.12247	0.241164
1.12276	0.240949
1.12306	0.239446
1.12336	0.240734
1.12365	0.24052
1.12395	0.239016
1.12425	0.24052
1.12454	0.24052
1.12484	0.238587
1.12513	0.242453
1.12543	0.238587
1.12573	0.241593
1.12602	0.242238
1.12632	0.242023
1.12662	0.238587
1.12691	0.240949
1.12721	0.243741
1.12751	0.24052
1.1278	0.242453
1.1281	0.24009
1.12839	0.241379
1.12869	0.23966
1.12899	0.243312
1.12928	0.240305
1.12958	0.241164
1.12988	0.241379
1.13017	0.243097
1.13047	0.242238
1.13077	0.242453
1.13106	0.241379
1.13136	0.239875
1.13166	0.240734
1.13195	0.242882
1.13225	0.241164
1.13254	0.240305
1.13284	0.242453
1.13314	0.241379
1.13343	0.237513
1.13373	0.239875
1.13403	0.244171
1.13432	0.243312
1.13462	0.238801
1.13492	0.24009
1.13521	0.239231
1.13551	0.243741
1.1358	0.24503
1.1361	0.240734
1.1364	0.240734
1.13669	0.237298
1.13699	0.238801
1.13729	0.239875
1.13758	0.239231
1.13788	0.239875
1.13818	0.24009
1.13847	0.240949
1.13877	0.241593
1.13907	0.240305
1.13936	0.242453
1.13966	0.240949
1.13995	0.240305
1.14025	0.241379
1.14055	0.24009
1.14084	0.242453
1.14114	0.244815
1.14144	0.240949
1.14173	0.240734
1.14203	0.239016
1.14233	0.242023
1.14262	0.242453
1.14292	0.240734
1.14321	0.240949
1.14351	0.242453
1.14381	0.2446
1.1441	0.242667
1.1444	0.240305
1.1447	0.239875
1.14499	0.240949
1.14529	0.238157
1.14559	0.240949
1.14588	0.238587
1.14618	0.241379
1.14648	0.241164
1.14677	0.240949
1.14707	0.240734
1.14736	0.241379
1.14766	0.241164
1.14796	0.238801
1.14825	0.241808
1.14855	0.24052
1.14885	0.239016
1.14914	0.240949
1.14944	0.240305
1.14974	0.23966
1.15003	0.239016
1.15033	0.243956
1.15062	0.242238
1.15092	0.239875
1.15122	0.239875
1.15151	0.23966
1.15181	0.243097
1.15211	0.240305
1.1524	0.23966
1.1527	0.239875
1.153	0.239016
1.15329	0.24009
1.15359	0.241164
1.15389	0.243312
1.15418	0.242882
1.15448	0.24052
1.15477	0.23966
1.15507	0.241808
1.15537	0.241808
1.15566	0.23966
1.15596	0.242453
1.15626	0.23966
1.15655	0.242238
1.15685	0.238372
1.15715	0.241379
1.15744	0.240734
1.15774	0.24009
1.15803	0.238801
1.15833	0.241808
1.15863	0.240734
1.15892	0.241808
1.15922	0.239231
1.15952	0.239875
1.15981	0.24052
1.16011	0.241593
1.16041	0.239231
1.1607	0.241808
1.161	0.241593
1.1613	0.243741
1.16159	0.244386
1.16189	0.242667
1.16218	0.240949
1.16248	0.240949
1.16278	0.239016
1.16307	0.241808
1.16337	0.240305
1.16367	0.241808
1.16396	0.241593
1.16426	0.240734
1.16456	0.24052
1.16485	0.242238
1.16515	0.24052
1.16544	0.240734
1.16574	0.242238
1.16604	0.240949
1.16633	0.24052
1.16663	0.240305
1.16693	0.241808
1.16722	0.24052
1.16752	0.239016
1.16782	0.24009
1.16811	0.24052
1.16841	0.239231
1.16871	0.241164
1.169	0.239016
1.1693	0.240305
1.16959	0.242667
1.16989	0.237727
1.17019	0.242023
1.17048	0.240949
1.17078	0.242023
1.17108	0.239875
1.17137	0.242453
1.17167	0.239016
1.17197	0.241593
1.17226	0.241164
1.17256	0.24009
1.17285	0.242238
1.17315	0.239446
1.17345	0.239875
1.17374	0.241808
1.17404	0.24052
1.17434	0.237727
1.17463	0.239446
1.17493	0.241808
1.17523	0.239231
1.17552	0.241164
1.17582	0.24009
1.17612	0.240734
1.17641	0.238801
1.17671	0.240305
1.177	0.239446
1.1773	0.242882
1.1776	0.243526
1.17789	0.242238
1.17819	0.240305
1.17849	0.244386
1.17878	0.241379
1.17908	0.239446
1.17938	0.241593
1.17967	0.240305
1.17997	0.240734
1.18026	0.240734
1.18056	0.241808
1.18086	0.240734
1.18115	0.242667
1.18145	0.241164
1.18175	0.24503
1.18204	0.241808
1.18234	0.237942
1.18264	0.240949
1.18293	0.239875
1.18323	0.240734
1.18353	0.23966
1.18382	0.240949
1.18412	0.241808
1.18441	0.24052
1.18471	0.241593
1.18501	0.242238
1.1853	0.241593
1.1856	0.239875
1.1859	0.241164
1.18619	0.240734
1.18649	0.24052
1.18679	0.242453
1.18708	0.240734
1.18738	0.24052
1.18767	0.241808
1.18797	0.24009
1.18827	0.241164
1.18856	0.239016
1.18886	0.240949
1.18916	0.24009
1.18945	0.242453
1.18975	0.23966
1.19005	0.24052
1.19034	0.239446
1.19064	0.241379
1.19094	0.243312
1.19123	0.238801
1.19153	0.239446
1.19182	0.24052
1.19212	0.24052
1.19242	0.238372
1.19271	0.237083
1.19301	0.242023
1.19331	0.238372
1.1936	0.241808
1.1939	0.243312
1.1942	0.240305
1.19449	0.24052
1.19479	0.238587
1.19508	0.241808
1.19538	0.240734
1.19568	0.240734
1.19597	0.240305
1.19627	0.240949
1.19657	0.243312
1.19686	0.23966
1.19716	0.243097
1.19746	0.241593
1.19775	0.242453
1.19805	0.241808
1.19835	0.242667
1.19864	0.240305
1.19894	0.242453
1.19923	0.242453
1.19953	0.239016
